#  BetaPic_CJB_S11_Final_SLSHLH_bcd_fin.txt					
#  processed with PEP version 3 (August 31, 2006)					
#  Comments:					
#  LH 03, SH 02+04, SL1 05+07+09, SL2 03+05+07					
#  (SH + 0.22 [~sky]) X 1.068					
#  truncated SH below 13.975 micron					
#  used SL bonus order from 7.41 to 8.40 micron					
#  ---					
#######################################################			
#  Wave (micron), Flux (Jy), error (spectrum), order, Stn Dev					

5.193900	7.836390	0.024612	0.024612	2	0.015170
5.223500	7.218530	0.022920	0.022920	2	0.016739
5.253100	7.330620	0.023880	0.023880	2	0.012918
5.282600	7.345680	0.022867	0.022867	2	0.009953
5.312200	7.322220	0.023194	0.023194	2	0.008461
5.341800	7.190280	0.023075	0.023075	2	0.008180
5.371400	7.114960	0.023588	0.023588	2	0.007886
5.400900	7.062480	0.022110	0.022110	2	0.009021
5.430500	6.989260	0.022219	0.022219	2	0.008589
5.460100	6.869960	0.021996	0.021996	2	0.008592
5.489600	6.771500	0.021971	0.021971	2	0.006698
5.519200	6.558230	0.022367	0.022367	2	0.009699
5.548800	6.555900	0.020550	0.020550	2	0.008347
5.578400	6.530300	0.021017	0.021017	2	0.009322
5.608000	6.632120	0.021322	0.021322	2	0.007715
5.637500	6.637860	0.021463	0.021463	2	0.007311
5.667100	6.574460	0.021516	0.021516	2	0.006413
5.696700	6.498800	0.025241	0.025241	2	0.005849
5.726300	6.476700	0.020801	0.020801	2	0.007085
5.755800	6.468000	0.021137	0.021137	2	0.007449
5.785400	6.415210	0.021323	0.021323	2	0.006117
5.815000	6.335960	0.021380	0.021380	2	0.006351
5.844500	6.205130	0.021232	0.021232	2	0.007459
5.874100	6.221440	0.022753	0.022753	2	0.008701
5.903700	5.971080	0.047273	0.047273	2	0.006448
5.933300	6.092240	0.021967	0.021967	2	0.006173
5.962800	5.997240	0.021929	0.021929	2	0.006314
5.992400	6.086450	0.020478	0.020478	2	0.007507
6.022000	6.043130	0.020807	0.020807	2	0.006935
6.051500	5.972670	0.020653	0.020653	2	0.008263
6.081100	6.001250	0.020695	0.020695	2	0.005698
6.110700	5.883410	0.020337	0.020337	2	0.006960
6.140300	5.874080	0.020412	0.020412	2	0.006898
6.169800	5.879560	0.020524	0.020524	2	0.005896
6.199400	5.897170	0.020551	0.020551	2	0.006426
6.229000	5.824080	0.020499	0.020499	2	0.005614
6.258600	5.798750	0.021727	0.021727	2	0.008096
6.288100	5.593650	0.027985	0.027985	2	0.007313
6.317700	5.739280	0.020355	0.020355	2	0.005428
6.347300	5.726420	0.020011	0.020011	2	0.006630
6.376900	5.585860	0.019857	0.019857	2	0.006006
6.406400	5.570640	0.019873	0.019873	2	0.000000
6.436000	5.645290	0.020195	0.020195	2	0.000000
6.465600	5.538140	0.020038	0.020038	2	0.000000
6.495200	5.366490	0.019487	0.019487	2	0.005078
6.524700	5.315820	0.019502	0.019502	2	0.006899
6.554300	5.330760	0.019626	0.019626	2	0.004496
6.583900	5.368550	0.019533	0.019533	2	0.004945
6.613500	5.325970	0.019407	0.019407	2	0.006191
6.643000	5.326340	0.019384	0.019384	2	0.006884
6.672600	5.225030	0.019081	0.019081	2	0.005210
6.702200	5.171370	0.019097	0.019097	2	0.004801
6.731800	5.060150	0.019449	0.019449	2	0.005368
6.761300	4.926690	0.032149	0.032149	2	0.008630
6.790900	5.029890	0.023977	0.023977	2	0.006688
6.820500	5.054180	0.018616	0.018616	2	0.007166
6.850000	5.067720	0.018756	0.018756	2	0.008993
6.879600	5.078320	0.019012	0.019012	2	0.006696
6.909200	5.047010	0.018970	0.018970	2	0.006448
6.938800	5.018960	0.018894	0.018894	2	0.007186
6.968300	5.034610	0.018881	0.018881	2	0.005830
6.997900	5.023170	0.018955	0.018955	2	0.006079
7.027500	5.022270	0.018991	0.018991	2	0.004909
7.057100	5.037140	0.019224	0.019224	2	0.005554
7.086600	5.022560	0.019080	0.019080	2	0.006088
7.116200	4.901670	0.018653	0.018653	2	0.004491
7.145800	4.808460	0.018473	0.018473	2	0.005319
7.175400	4.824650	0.018618	0.018618	2	0.007360
7.204900	4.777240	0.018586	0.018586	2	0.006518
7.234500	4.737630	0.018378	0.018378	2	0.006140
7.264100	4.752630	0.018617	0.018617	2	0.007086
7.293600	4.676370	0.018135	0.018135	2	0.005657
7.323200	4.549480	0.017816	0.017816	2	0.008424
7.352800	4.538240	0.017844	0.017844	2	0.009183
7.382900	4.595620	0.018307	0.018307	2	0.007507
7.413100	4.494360	0.025615	0.025615	3	0.005951
7.443400	4.427540	0.039625	0.039625	3	0.005766
7.473600	4.342340	0.038450	0.038450	3	0.003545
7.503900	4.254480	0.037075	0.037075	3	0.003462
7.534100	4.335720	0.025633	0.025633	3	0.005623
7.564400	4.394600	0.024656	0.024656	3	0.006022
7.594600	4.331710	0.024564	0.024564	3	0.006387
7.624800	4.360010	0.024653	0.024653	3	0.006996
7.655100	4.212270	0.023871	0.023871	3	0.005062
7.685300	4.256690	0.024037	0.024037	3	0.006158
7.715600	4.276670	0.024308	0.024308	3	0.003509
7.745800	4.339080	0.024696	0.024696	3	0.004477
7.776100	4.228590	0.024316	0.024316	3	0.004010
7.806300	4.343490	0.024766	0.024766	3	0.005024
7.836500	4.304250	0.024900	0.024900	3	0.004991
7.866800	4.386580	0.025416	0.025416	3	0.006632
7.897000	4.347550	0.025329	0.025329	3	0.004011
7.927300	4.267920	0.024556	0.024556	3	0.006054
7.957500	4.254890	0.024684	0.024684	3	0.004302
7.987800	4.374790	0.025442	0.025442	3	0.004046
8.018000	4.306230	0.025232	0.025232	3	0.003122
8.048200	4.341720	0.025470	0.025470	3	0.004333
8.078500	4.235870	0.025033	0.025033	3	0.003621
8.108700	4.266620	0.025455	0.025455	3	0.005778
8.139000	4.194290	0.026247	0.026247	3	0.004488
8.169200	4.200290	0.025186	0.025186	3	0.003737
8.199400	4.174610	0.025109	0.025109	3	0.003327
8.229700	4.184290	0.025245	0.025245	3	0.004635
8.259900	4.178600	0.025297	0.025297	3	0.003856
8.290200	4.144180	0.025193	0.025193	3	0.005776
8.320400	4.151740	0.025260	0.025260	3	0.004866
8.350700	4.131130	0.025069	0.025069	3	0.005641
8.380900	4.083040	0.024745	0.024745	3	0.005033
8.411100	4.089220	0.013336	0.013336	1	0.006097
8.471600	4.084430	0.013352	0.013352	1	0.003585
8.532100	4.041420	0.013260	0.013260	1	0.003822
8.592600	4.059590	0.013538	0.013538	1	0.003131
8.653100	3.991090	0.014978	0.014978	1	0.003383
8.713500	4.011520	0.014373	0.014373	1	0.004289
8.774000	3.931370	0.019377	0.019377	1	0.003130
8.834500	3.989680	0.013074	0.013074	1	0.003064
8.895000	3.960240	0.013143	0.013143	1	0.003135
8.955500	4.015840	0.013387	0.013387	1	0.002695
9.016000	4.106260	0.013808	0.013808	1	0.003946
9.076500	4.201670	0.014164	0.014164	1	0.003773
9.136900	4.239240	0.014410	0.014410	1	0.003694
9.197400	4.192480	0.014236	0.014236	1	0.002849
9.257900	4.138080	0.014088	0.014088	1	0.003396
9.318400	4.149190	0.014312	0.014312	1	0.003102
9.378900	4.109370	0.018246	0.018246	1	0.002979
9.439400	4.212410	0.014065	0.014065	1	0.003826
9.499800	4.285390	0.014863	0.014863	1	0.003673
9.560300	4.282000	0.014778	0.014778	1	0.002688
9.620800	4.306510	0.014953	0.014953	1	0.002829
9.681300	4.255470	0.014783	0.014783	1	0.003305
9.741800	4.174660	0.014476	0.014476	1	0.003726
9.802300	4.171050	0.014571	0.014571	1	0.003463
9.862700	4.127070	0.014297	0.014297	1	0.002890
9.923200	4.149060	0.014466	0.014466	1	0.002667
9.983700	4.127720	0.014435	0.014435	1	0.002976
10.044200	4.111600	0.014370	0.014370	1	0.003154
10.104700	4.096230	0.014363	0.014363	1	0.002562
10.165200	4.028870	0.014168	0.014168	1	0.002478
10.225600	3.978410	0.014284	0.014284	1	0.002743
10.286100	4.014310	0.013969	0.013969	1	0.002676
10.346600	4.079010	0.014447	0.014447	1	0.002651
10.407100	4.055050	0.014540	0.014540	1	0.003615
10.467600	4.043260	0.020424	0.020424	1	0.003388
10.528100	3.968180	0.018216	0.018216	1	0.003172
10.588500	3.985320	0.014232	0.014232	1	0.003551
10.649000	3.938260	0.014166	0.014166	1	0.003379
10.709500	3.913390	0.014142	0.014142	1	0.003562
10.770000	3.872390	0.014500	0.014500	1	0.003687
10.830500	3.865000	0.013656	0.013656	1	0.002879
10.891000	3.954490	0.014314	0.014314	1	0.003432
10.951500	3.949200	0.014380	0.014380	1	0.003236
11.011900	3.942930	0.014496	0.014496	1	0.004170
11.072400	3.888200	0.014339	0.014339	1	0.003480
11.132900	3.848490	0.014264	0.014264	1	0.003737
11.193400	3.873280	0.014487	0.014487	1	0.004198
11.253900	3.816710	0.015399	0.015399	1	0.002960
11.314400	3.656520	0.022101	0.022101	1	0.003089
11.374800	3.731220	0.013858	0.013858	1	0.002704
11.435300	3.629140	0.013782	0.013782	1	0.003038
11.495800	3.614180	0.014288	0.014288	1	0.003765
11.556300	3.576190	0.013528	0.013528	1	0.002920
11.616800	3.584930	0.013791	0.013791	1	0.003383
11.677200	3.594620	0.013918	0.013918	1	0.002788
11.737700	3.487870	0.013607	0.013607	1	0.002496
11.798200	3.457780	0.013590	0.013590	1	0.003437
11.858700	3.424990	0.013528	0.013528	1	0.002924
11.919200	3.424970	0.013595	0.013595	1	0.003007
11.979700	3.398760	0.013530	0.013530	1	0.002958
12.040100	3.379300	0.013516	0.013516	1	0.002818
12.100600	3.368310	0.013535	0.013535	1	0.002498
12.161100	3.400280	0.013719	0.013719	1	0.002519
12.221600	3.412260	0.013851	0.013851	1	0.002580
12.282100	3.393650	0.013898	0.013898	1	0.002249
12.342600	3.424670	0.016234	0.016234	1	0.002707
12.403100	3.404150	0.018212	0.018212	1	0.003176
12.463500	3.414600	0.013918	0.013918	1	0.002906
12.524000	3.311240	0.013986	0.013986	1	0.002708
12.584500	3.361600	0.014872	0.014872	1	0.002964
12.645000	3.380480	0.013856	0.013856	1	0.003323
12.705500	3.329560	0.013843	0.013843	1	0.003640
12.766000	3.323050	0.013872	0.013872	1	0.003902
12.826400	3.286990	0.013728	0.013728	1	0.004463
12.886900	3.340210	0.014028	0.014028	1	0.002707
12.947400	3.245280	0.013729	0.013729	1	0.003137
13.007900	3.257350	0.013814	0.013814	1	0.003099
13.068400	3.162340	0.013593	0.013593	1	0.003476
13.128900	3.348600	0.014583	0.014583	1	0.003362
13.189300	3.250920	0.013989	0.013989	1	0.003398
13.249800	3.301740	0.014122	0.014122	1	0.002967
13.310300	3.206020	0.013714	0.013714	1	0.003260
13.370800	3.222090	0.013904	0.013904	1	0.004185
13.431300	3.289010	0.014124	0.014124	1	0.003887
13.491800	3.225880	0.013861	0.013861	1	0.004307
13.552200	3.302770	0.014126	0.014126	1	0.003541
13.612700	3.370070	0.014367	0.014367	1	0.004059
13.673200	3.283170	0.014056	0.014056	1	0.003252
13.733700	3.260320	0.013937	0.013937	1	0.003553
13.794200	3.363720	0.014457	0.014457	1	0.005435
13.854700	3.465950	0.014978	0.014978	1	0.004198
13.915100	3.351020	0.014454	0.014454	1	0.004045
13.975600	3.359030	0.014212	0.014212	1	0.003357
13.984600	3.422740	0.504269	0.504269	15	0.005798
13.995300	3.331710	0.485943	0.485943	15	0.005853
14.006100	3.314370	0.480278	0.480278	15	0.007138
14.016900	3.332770	0.482163	0.482163	15	0.007309
14.027700	3.332850	0.482014	0.482014	15	0.005445
14.038500	3.412770	0.498603	0.498603	15	0.006412
14.049300	3.363090	0.489614	0.489614	15	0.005580
14.060100	3.367430	0.489461	0.489461	15	0.007195
14.070900	3.311070	0.334614	0.334614	15	0.004883
14.081700	3.317200	0.335005	0.335005	15	0.005579
14.092600	3.328900	0.336231	0.336231	15	0.005159
14.103400	3.294430	0.331181	0.331181	15	0.005393
14.114300	3.325040	0.334362	0.334362	15	0.004976
14.125100	3.308560	0.331481	0.331481	15	0.005822
14.136000	3.316690	0.331208	0.331208	15	0.005423
14.146900	3.287650	0.325356	0.325356	15	0.004318
14.157700	3.292690	0.325052	0.325052	15	0.004516
14.168600	3.298060	0.324533	0.324533	15	0.005147
14.179500	3.258520	0.317571	0.317571	15	0.004579
14.190400	3.273780	0.317519	0.317519	15	0.005401
14.201400	3.240000	0.311453	0.311453	15	0.004862
14.212300	3.240570	0.445874	0.445874	14	0.005372
14.223200	3.283110	0.452927	0.452927	14	0.004600
14.234200	3.289300	0.454136	0.454136	14	0.004482
14.245100	3.316030	0.458278	0.458278	14	0.004420
14.256100	3.163790	0.429775	0.429775	14	0.004055
14.267100	3.284450	0.449626	0.449626	14	0.003967
14.278100	3.231640	0.438474	0.438474	14	0.004175
14.289000	3.351220	0.458797	0.458797	14	0.004217
14.300000	3.283890	0.445740	0.445740	14	0.004510
14.311000	3.221190	0.434140	0.434140	14	0.003912
14.322100	3.251280	0.438223	0.438223	14	0.004776
14.333100	3.251030	0.436836	0.436836	14	0.003790
14.344100	3.380700	0.457619	0.457619	14	0.004480
14.355100	3.284900	0.440192	0.440192	14	0.004613
14.366200	3.283350	0.440683	0.440683	14	0.004286
14.377200	3.264500	0.437307	0.437307	14	0.004894
14.388300	3.292990	0.441563	0.441563	14	0.004973
14.399400	3.359340	0.452024	0.452024	14	0.004626
14.410500	3.318690	0.444224	0.444224	14	0.004653
14.421500	3.329790	0.444759	0.444759	14	0.004805
14.432600	3.258460	0.432141	0.432141	14	0.004404
14.443800	3.306060	0.438622	0.438622	14	0.003730
14.454900	3.354970	0.445027	0.445027	14	0.003749
14.466000	3.351320	0.443571	0.443571	14	0.004211
14.477100	3.349510	0.442824	0.442824	14	0.004093
14.488300	3.247830	0.423793	0.423793	14	0.004341
14.499400	3.286490	0.428812	0.428812	14	0.004035
14.510600	3.332300	0.435830	0.435830	14	0.004159
14.521700	3.338660	0.435816	0.435816	14	0.004290
14.532900	3.365980	0.440153	0.440153	14	0.004452
14.544100	3.249710	0.419146	0.419146	14	0.005178
14.555300	3.308320	0.427006	0.427006	14	0.004624
14.566500	3.317930	0.427136	0.427136	14	0.004027
14.577700	3.342660	0.430012	0.430012	14	0.004233
14.588900	3.364920	0.433448	0.433448	14	0.004118
14.600100	3.292740	0.420545	0.420545	14	0.005032
14.611400	3.331530	0.425913	0.425913	14	0.004524
14.622600	3.322780	0.425395	0.425395	14	0.003954
14.633900	3.425850	0.442343	0.442343	14	0.005272
14.645100	3.473470	0.453199	0.453199	14	0.004115
14.656400	3.394610	0.437172	0.437172	14	0.004810
14.667700	3.402860	0.435682	0.435682	14	0.004502
14.679000	3.309350	0.416637	0.416637	14	0.004761
14.690300	3.423190	0.433525	0.433525	14	0.005016
14.701600	3.403320	0.430258	0.430258	14	0.004222
14.712900	3.382880	0.426622	0.426622	14	0.004148
14.724200	3.384770	0.426786	0.426786	14	0.004244
14.735500	3.336890	0.418310	0.418310	14	0.004125
14.746900	3.449950	0.435313	0.435313	14	0.004759
14.758200	3.412130	0.426511	0.426511	14	0.004648
14.769600	3.432790	0.429452	0.429452	14	0.004449
14.780900	3.406340	0.423442	0.423442	14	0.004094
14.792300	3.368310	0.415879	0.415879	14	0.004049
14.803700	3.469670	0.430120	0.430120	14	0.004442
14.815100	3.413970	0.418796	0.418796	14	0.005192
14.826500	3.476980	0.427578	0.427578	14	0.004600
14.837900	3.431060	0.419371	0.419371	14	0.004435
14.849300	3.377570	0.411477	0.411477	14	0.004388
14.860800	3.489360	0.428462	0.428462	14	0.004644
14.872200	3.458850	0.422024	0.422024	14	0.004265
14.883600	3.533340	0.433785	0.433785	14	0.005099
14.895100	3.447740	0.419016	0.419016	14	0.004565
14.906500	3.399390	0.409918	0.409918	14	0.004769
14.918000	3.471160	0.420435	0.420435	14	0.004885
14.929500	3.421940	0.412327	0.412327	14	0.005614
14.941000	3.493490	0.421833	0.421833	14	0.004833
14.952500	3.450220	0.413938	0.413938	14	0.004138
14.964000	3.404170	0.406145	0.406145	14	0.004263
14.975500	3.452510	0.412718	0.412718	14	0.004787
14.987000	3.422400	0.406092	0.406092	14	0.005360
14.998600	3.496940	0.416121	0.416121	14	0.005330
15.010100	3.460400	0.409065	0.409065	14	0.005953
15.021700	3.421750	0.401842	0.401842	14	0.006035
15.033200	3.446850	0.403748	0.403748	14	0.005721
15.044800	3.425240	0.399291	0.399291	14	0.005127
15.056400	3.511190	0.411310	0.411310	14	0.006604
15.067900	3.489130	0.406815	0.406815	14	0.007387
15.079500	3.434190	0.398132	0.398132	14	0.005232
15.091100	3.454790	0.400518	0.400518	14	0.006810
15.102700	3.412040	0.391625	0.391625	14	0.006616
15.114400	3.501280	0.402198	0.402198	14	0.007422
15.126000	3.379610	0.268854	0.268854	14	0.005473
15.137600	3.381360	0.267515	0.267515	14	0.005095
15.149300	3.424350	0.271917	0.271917	14	0.005677
15.160900	3.370480	0.265990	0.265990	14	0.004740
15.172600	3.433300	0.271494	0.271494	14	0.005346
15.184300	3.398050	0.265925	0.265925	14	0.005765
15.196000	3.378670	0.262824	0.262824	14	0.005228
15.207700	3.431240	0.267346	0.267346	14	0.006059
15.219400	3.384730	0.262194	0.262194	14	0.005211
15.231100	3.476130	0.272180	0.272180	14	0.005757
15.242800	3.425380	0.265812	0.265812	14	0.005974
15.254500	3.452340	0.269691	0.269691	14	0.006975
15.266300	3.558130	0.280085	0.280085	14	0.005516
15.278000	3.477600	0.270160	0.270160	14	0.006426
15.289800	3.573460	0.282458	0.282458	14	0.007300
15.301500	3.483930	0.381626	0.381626	13	0.004506
15.313300	3.404000	0.370482	0.370482	13	0.003663
15.325100	3.486390	0.379483	0.379483	13	0.005226
15.336900	3.450790	0.373405	0.373405	13	0.004694
15.348700	3.553890	0.386820	0.386820	13	0.005492
15.360500	3.501610	0.378200	0.378200	13	0.005614
15.372300	3.431320	0.369570	0.369570	13	0.005296
15.384200	3.482940	0.377233	0.377233	13	0.005608
15.396000	3.469140	0.375475	0.375475	13	0.005408
15.407900	3.573230	0.388883	0.388883	13	0.005347
15.419700	3.606960	0.393381	0.393381	13	0.004886
15.431600	3.531860	0.382299	0.382299	13	0.005421
15.443400	3.531840	0.381210	0.381210	13	0.005312
15.455300	3.489060	0.373784	0.373784	13	0.004466
15.467200	3.559460	0.381534	0.381534	13	0.004847
15.479100	3.635770	0.390158	0.390158	13	0.005717
15.491000	3.560800	0.379418	0.379418	13	0.005002
15.503000	3.588380	0.382494	0.382494	13	0.004280
15.514900	3.506880	0.370324	0.370324	13	0.005029
15.526800	3.506640	0.367717	0.367717	13	0.005032
15.538800	3.621190	0.381579	0.381579	13	0.005581
15.550700	3.572100	0.373577	0.373577	13	0.005452
15.562700	3.640750	0.382357	0.382357	13	0.004823
15.574700	3.547490	0.368723	0.368723	13	0.004659
15.586700	3.505330	0.362563	0.362563	13	0.004642
15.598700	3.627370	0.377005	0.377005	13	0.004552
15.610700	3.596800	0.371475	0.371475	13	0.005483
15.622700	3.670240	0.380615	0.380615	13	0.004924
15.634700	3.648950	0.376831	0.376831	13	0.005259
15.646700	3.545680	0.362853	0.362853	13	0.005014
15.658800	3.618470	0.371470	0.371470	13	0.004494
15.670800	3.586650	0.365605	0.365605	13	0.004458
15.682900	3.657610	0.374318	0.374318	13	0.004573
15.694900	3.694440	0.378087	0.378087	13	0.004797
15.707000	3.575670	0.362118	0.362118	13	0.004056
15.719100	3.636670	0.370189	0.370189	13	0.004543
15.731200	3.620820	0.365693	0.365693	13	0.004729
15.743300	3.647700	0.369904	0.369904	13	0.004892
15.755400	3.744670	0.381510	0.381510	13	0.005107
15.767600	3.657410	0.369757	0.369757	13	0.005248
15.779700	3.681690	0.372848	0.372848	13	0.004929
15.791800	3.649600	0.366432	0.366432	13	0.004586
15.804000	3.645300	0.365926	0.365926	13	0.005008
15.816100	3.769190	0.380672	0.380672	13	0.005611
15.828300	3.736500	0.375540	0.375540	13	0.004495
15.840500	3.707460	0.370389	0.370389	13	0.004695
15.852700	3.737640	0.372511	0.372511	13	0.004496
15.864900	3.689350	0.365080	0.365080	13	0.004344
15.877100	3.803720	0.378281	0.378281	13	0.005307
15.889300	3.824830	0.379649	0.379649	13	0.004615
15.901500	3.823150	0.379790	0.379790	13	0.005921
15.913800	3.847000	0.382280	0.382280	13	0.004528
15.926000	3.799620	0.376062	0.376062	13	0.004981
15.938300	3.802000	0.374069	0.374069	13	0.004885
15.950500	3.878980	0.382244	0.382244	13	0.004753
15.962800	3.857150	0.377933	0.377933	13	0.005256
15.975100	3.890950	0.381079	0.381079	13	0.005643
15.987400	3.867930	0.378367	0.378367	13	0.005509
15.999700	3.854000	0.375917	0.375917	13	0.005889
16.012000	3.936290	0.386169	0.386169	13	0.005681
16.024300	3.948140	0.387605	0.387605	13	0.005065
16.036700	3.938290	0.383892	0.383892	13	0.005525
16.049000	3.918490	0.380407	0.380407	13	0.006428
16.061300	3.821960	0.368197	0.368197	13	0.004596
16.073700	3.853250	0.370512	0.370512	13	0.005604
16.086100	3.830880	0.366728	0.366728	13	0.006323
16.098400	3.855440	0.369471	0.369471	13	0.007210
16.110800	3.916310	0.374599	0.374599	13	0.007581
16.123200	3.861150	0.366195	0.366195	13	0.006781
16.135700	3.824510	0.358477	0.358477	13	0.006369
16.148100	3.847770	0.358163	0.358163	13	0.006172
16.160500	3.853880	0.359113	0.359113	13	0.006114
16.172900	3.922750	0.365801	0.365801	13	0.006022
16.185400	3.916650	0.362622	0.362622	13	0.006907
16.197800	3.912190	0.362639	0.362639	13	0.006883
16.210300	3.936770	0.365261	0.365261	13	0.006497
16.222800	3.893700	0.356357	0.356357	13	0.007961
16.235300	3.919390	0.357898	0.357898	13	0.007897
16.247700	3.934210	0.356956	0.356956	13	0.008810
16.260300	3.934420	0.356352	0.356352	13	0.007697
16.272800	3.954780	0.358375	0.358375	13	0.007792
16.285300	3.943910	0.356231	0.356231	13	0.008329
16.297800	3.937540	0.355391	0.355391	13	0.007865
16.310400	4.012210	0.361737	0.361737	13	0.008142
16.322900	3.977220	0.354692	0.354692	13	0.008119
16.335500	4.008010	0.358915	0.358915	13	0.007875
16.348000	4.054380	0.364002	0.364002	13	0.006925
16.360600	3.936240	0.246781	0.246781	13	0.005779
